File: 20220926_XRR/20210729-1-5 2/20210729-2_pre_2θ_ω.asc
*TYPE		=  Raw
*CLASS		=  ASCII CLASS
*SAMPLE		=  1V020301 18.5m VSM
*COMMENT	=
*FNAME		=  20210729-2_pre_2θ_ω.asc
*DATE		=  29-Jul-21 10:25

*GROUP_COUNT	=  1
*GONIO		=  SmartLab(In-plane), 0.000000
*ATTACHMENT	=  χφZクレードル
*ASC		=  0, 0, 0.000000, 0.000000
*I_MONOCHRO	=  Ge(220)x2, 0.000000
*FILTER		=  None
*C_MONOCHRO	=  None, 0.000000
*SLIT_NAME	=  0, 入射スリット
*SLIT_NAME	=  1, 受光スリット1
*SLIT_NAME	=  2, 受光スリット2
*COUNTER	=  SC-70, 0
*POS_FORMAT	=  0
*SCAN_AXIS	=  2Theta/Omega
*MEAS_MODE	=  Continuous Scanning
*TARGET		=  29
*XRAY_CHAR	=  K-ALPHA1
*WAVE_LENGTH1	=  1.54059
*WAVE_LENGTH2	=  1.54441
*THICKNESS	=  0, 0.000000
*MU		=  0, 0.000000
*SCAN_MODE	=  2Theta/Omega
*SPEED_DIM	=  sec./step
*XUNIT		=  deg.
*YUNIT		=  counts
*SCALE_MODE	=  1
*REP_COUNT	=  0
*SE_COUNT	=  0
*STD_MATERIAL	=  Unknown, Unknown, 0.000000, 0.000000, 0.000000, 0.000000, 0.000000, 0.000000
*LATT_CONS	=  0, Unknown, Unknown, 0.000000, 0.000000, 0.000000, 0.000000, 0.000000, 0.000000
*SEC_COUNT	=  1
*TSPEC_SIZE	=  0
*EXTRA_SIZE	=  0
*MEMO		=  600 120mA 150V -30deg phi440(4t) ellpse

*BEGIN
*GROUP		=  0
*START		=  0.000000
*STOP		=  6
*STEP		=  0.004
*OFFSET		=  0.000000
*SPEED		=  0.08
*SLIT_SPEC	=  0, 0.100mm, 0.1, 0.000000
*SLIT_SPEC	=  1, 0.200mm, 0.2, 0.000000
*SLIT_SPEC	=  2, 0.200mm, 0.2, 0.000000
*KV		=  45
*MA		=  200
*LOW		=  0.000000
*HIGH		=  0.000000
*CTEMPER	=  0, 0.000000
*CTEMPER	=  1, 0.000000
*CTEMPER	=  2, 0.000000
*PAREX		=  0, 0.000000
*PAREX		=  1, 0.000000
*PAREX		=  2, 0.000000
*PAREX		=  3, 0.000000
*PAREX		=  4, 0.000000
*PAREX		=  5, 0.000000
*PAREX		=  6, 0.000000
*PAREX		=  7, 0.000000
*PAREX		=  8, 0.000000
*PAREX		=  9, 0.000000
*PAREX		=  10, 0.000000
*PAREX		=  11, 0.000000
*PAREX		=  12, 0.000000
*PAREX		=  13, 0.000000
*PAREX		=  14, 0.000000
*PAREX		=  15, 0.000000
*FULL_SCALE	=  46234416
*INDEX		=  0, 0, 0
*COUNT		=  1501
2988485.5, 3082294.5, 2881275.3, 2692819.8
510086, 347082, 233760, 198982
214980, 222738, 245370, 253182
308826, 314872, 330067, 353128
402298, 410645, 422523, 439109
502511, 511019, 521345, 521666
596197, 607326, 622147, 641783
701601, 712462, 712676, 730546
792076, 800423, 811124, 827068
883675, 908234, 900743, 911765
974633, 989132, 1003043.3, 1003150.3
1064573.1, 1068853.4, 1071742.6, 1095017
1137927.4, 1153711.1, 1156279.3, 1157349.4
1223320, 1224711.1, 1226423.3, 1256653.1
1268905.6, 1292072.9, 1300205.6, 1303041.3
1346219.1, 1331077.5, 1349375.9, 1350232
1403575.6, 1419466.4, 1377733.1, 1410424.3
1421178.5, 1419627, 1407374.5, 1422997.8
1431290.9, 1450766.4, 1445469.5, 1440119
1446860.6, 1430113.8, 1426101, 1427010.5
1381906.5, 1376074.5, 1379177.8, 1371045.1
1321232.8, 1286669, 1281800.1, 1255155
1162485.8, 1144133.9, 1137552.8, 1093411.9
937608, 917276, 875168, 837608
668910, 643388, 597000, 570729
428087, 412357, 387103, 361474
289458, 278917, 260458, 258158
203209, 190528, 181968, 178758
134777, 121776, 118833, 117977
102086, 104119, 101818, 96682.1
86783.8, 84162.1, 77848.6, 75119.9
52220.1, 53397.2, 45425.1, 45960.1
38897.6, 38041.5, 39539.6, 41572.8
43980.5, 41091.2, 39967.6, 41679.8
33440.1, 31835, 26698.6, 24451.4
15783.7, 14874.2, 13055, 12787.5
14767.2, 15676.7, 16372.3, 18137.9
18673, 20492.1, 19154.5, 18405.4
13001.5, 12948, 12627, 10692
5295, 4765, 4166, 3982
4854, 5429, 5979, 6559
9113, 9213, 9375, 9236
7795, 7176, 6422, 5750
2567, 2077, 1650, 1332
942, 1185, 1440, 1700
3267, 3607, 3691, 3936
3960, 3887, 3607, 3367
1814, 1514, 1312, 1014
326, 334, 329, 395
1033, 1191, 1324, 1511
1908, 1977, 1747, 1849
1253, 1105, 943, 873
412, 338, 314, 333
556, 635, 708, 801
1185, 1161, 1186, 1217
937, 845, 788, 735
316, 249, 228, 200
358, 438, 458, 580
927, 970, 1014, 1125
1042, 1039, 930, 924
455, 340, 301, 300
113, 108, 161, 189
545, 628, 694, 734
1018, 1058, 1031, 1129
920, 798, 756, 716
313, 237, 182, 147
91, 116, 174, 221
540, 644, 673, 756
987, 981, 949, 923
768, 710, 647, 580
252, 178, 165, 122
113, 111, 146, 187
504, 534, 605, 644
814, 761, 832, 803
724, 611, 582, 483
237, 164, 150, 116
83, 115, 142, 121
393, 435, 487, 547
688, 730, 727, 747
646, 553, 544, 481
269, 204, 169, 127
65, 92, 96, 118
291, 344, 384, 440
595, 583, 658, 608
602, 592, 509, 511
279, 235, 185, 143
86, 83, 110, 106
249, 257, 269, 346
504, 515, 566, 593
557, 535, 516, 507
278, 245, 212, 187
94, 88, 77, 103
176, 235, 260, 249
413, 461, 477, 476
522, 494, 459, 467
296, 294, 236, 165
87, 79, 81, 77
131, 152, 177, 184
327, 353, 381, 365
440, 421, 399, 385
241, 233, 224, 203
94, 80, 63, 67
93, 128, 115, 126
231, 256, 281, 293
331, 335, 337, 307
229, 248, 182, 178
81, 68, 59, 71
50, 50, 71, 91
173, 161, 217, 221
269, 271, 274, 234
190, 194, 173, 175
85, 68, 57, 61
27, 42, 49, 34
106, 118, 151, 129
181, 173, 198, 221
175, 188, 162, 145
90, 70, 61, 53
22, 18, 19, 19
60, 72, 80, 81
140, 141, 150, 128
126, 121, 112, 122
73, 64, 46, 45
16, 14, 14, 14
28, 39, 65, 44
90, 75, 93, 100
96, 107, 113, 104
62, 66, 59, 49
20, 15, 19, 9
13, 25, 27, 36
68, 58, 64, 67
60, 83, 57, 74
48, 44, 40, 35
18, 14, 7, 6
8, 12, 13, 9
21, 40, 30, 43
56, 36, 60, 45
49, 45, 30, 24
11, 8, 10, 10
4, 1, 4, 6
16, 13, 18, 27
34, 38, 34, 31
35, 19, 30, 20
6, 8, 5, 3
1, 1, 2, 7
11, 16, 14, 15
26, 24, 16, 13
16, 15, 18, 18
7, 6, 6, 3
4, 4, 4, 2
8, 6, 2, 5
12, 15, 5, 10
16, 10, 7, 12
11, 4, 6, 6
4, 5, 7, 2
3, 1, 1, 2
6, 6, 10, 3
5, 5, 9, 8
7, 7, 5, 3
7, 6, 4, 5
3, 1, 3, 3
2, 2, 7, 3
3, 1, 3, 2
4, 5, 4, 4
6, 1, 6, 5
3, 7, 6, 4
3, 2, 5, 2
2, 2, 3, 4
4, 1, 4, 0.000000
4, 1, 4, 5
1, 3, 1, 7
1, 1, 3, 2
0.000000, 1, 3, 0.000000
2, 3, 3, 2
3, 5, 5, 0.000000
1, 4, 4, 6
2, 1, 4, 1
1, 0.000000, 4, 1
1, 1, 2, 1
3, 2, 3, 1
2, 4, 4, 8
6, 4, 4, 6
7, 2, 2, 2
1, 4, 0.000000, 0.000000
6, 3, 0.000000, 1
1, 4, 4, 2
6, 8, 4, 5
3, 2, 2, 3
0.000000, 1, 0.000000, 3
0.000000
*END

*EOF