File: 20220926_XRR/20210729-1-5 2/20210729-5_pre_2θ_ω.asc
*TYPE		=  Raw
*CLASS		=  ASCII CLASS
*SAMPLE		=  2V032701 Fe1h VSM
*COMMENT	=
*FNAME		=  20210729-5_pre_2θ_ω.asc
*DATE		=  29-Jul-21 11:51

*GROUP_COUNT	=  1
*GONIO		=  SmartLab(In-plane), 0.000000
*ATTACHMENT	=  χφZクレードル
*ASC		=  0, 0, 0.000000, 0.000000
*I_MONOCHRO	=  Ge(220)x2, 0.000000
*FILTER		=  None
*C_MONOCHRO	=  None, 0.000000
*SLIT_NAME	=  0, 入射スリット
*SLIT_NAME	=  1, 受光スリット1
*SLIT_NAME	=  2, 受光スリット2
*COUNTER	=  SC-70, 0
*POS_FORMAT	=  0
*SCAN_AXIS	=  2Theta/Omega
*MEAS_MODE	=  Continuous Scanning
*TARGET		=  29
*XRAY_CHAR	=  K-ALPHA1
*WAVE_LENGTH1	=  1.54059
*WAVE_LENGTH2	=  1.54441
*THICKNESS	=  0, 0.000000
*MU		=  0, 0.000000
*SCAN_MODE	=  2Theta/Omega
*SPEED_DIM	=  sec./step
*XUNIT		=  deg.
*YUNIT		=  counts
*SCALE_MODE	=  1
*REP_COUNT	=  0
*SE_COUNT	=  0
*STD_MATERIAL	=  Unknown, Unknown, 0.000000, 0.000000, 0.000000, 0.000000, 0.000000, 0.000000
*LATT_CONS	=  0, Unknown, Unknown, 0.000000, 0.000000, 0.000000, 0.000000, 0.000000, 0.000000
*SEC_COUNT	=  1
*TSPEC_SIZE	=  0
*EXTRA_SIZE	=  0
*MEMO		=

*BEGIN
*GROUP		=  0
*START		=  0.000000
*STOP		=  6
*STEP		=  0.004
*OFFSET		=  0.000000
*SPEED		=  0.08
*SLIT_SPEC	=  0, 0.100mm, 0.1, 0.000000
*SLIT_SPEC	=  1, 0.200mm, 0.2, 0.000000
*SLIT_SPEC	=  2, 0.200mm, 0.2, 0.000000
*KV		=  45
*MA		=  200
*LOW		=  0.000000
*HIGH		=  0.000000
*CTEMPER	=  0, 0.000000
*CTEMPER	=  1, 0.000000
*CTEMPER	=  2, 0.000000
*PAREX		=  0, 0.000000
*PAREX		=  1, 0.000000
*PAREX		=  2, 0.000000
*PAREX		=  3, 0.000000
*PAREX		=  4, 0.000000
*PAREX		=  5, 0.000000
*PAREX		=  6, 0.000000
*PAREX		=  7, 0.000000
*PAREX		=  8, 0.000000
*PAREX		=  9, 0.000000
*PAREX		=  10, 0.000000
*PAREX		=  11, 0.000000
*PAREX		=  12, 0.000000
*PAREX		=  13, 0.000000
*PAREX		=  14, 0.000000
*PAREX		=  15, 0.000000
*FULL_SCALE	=  37779044
*INDEX		=  0, 0, 0
*COUNT		=  1501
2376214.5, 2518603, 2413905.5, 2454947
662526, 530188, 445593, 407064
523488, 591332, 598870, 588819
750472, 842606, 882809, 884485
1010121.5, 1007608.8, 1059538.8, 1146647
1229567.5, 1234592.9, 1291548.4, 1291548.4
1388707.6, 1500105.8, 1511831.9, 1435612.1
1623230, 1520207.8, 1604803.3, 1572975.3
1714526.3, 1728765.1, 1711176, 1715363.9
1748029.5, 1842676, 1796609.1, 1861102.8
1926434, 1924758.9, 1928109.1, 1957424.5
1936485, 2012704.8, 2011867.1, 2017730.3
1964962.6, 2035319.4, 1954074.1, 2083061.5
2072172.9, 2123265.3, 2094787.6, 2106513.8
1998465.9, 2068822.6, 2104838.5, 2143367.3
2103163.5, 2079711.1, 2026106, 2109026.5
2027781.1, 1986739.8, 1936485, 2047045.5
1957424.5, 1944860.8, 1960774.8, 1949886.3
1826762, 1829274.8, 1832625, 1886230.1
1699449.9, 1702800.1, 1694424.4, 1751379.8
1637468.9, 1587214.1, 1629093.1, 1519370.1
1511831.9, 1495080.3, 1466602.6, 1384519.8
1307462.4, 1242131.1, 1235430.5, 1155022.9
1004258.4, 1041949.5, 900399, 947303
714456, 644937, 639911, 620647
466532, 449780, 428841, 407901
303957, 276296, 267949, 256713
200213, 185125, 179935, 170411
133975, 130550, 129962, 116318
98287.2, 88228.4, 90047.6, 85767.2
67468.8, 71428.1, 64633.1, 65435.6
50240.4, 53183.2, 48795.8, 44301.5
36810.9, 37452.9, 37720.5, 36650.4
30443.9, 29427.3, 29587.8, 28464.2
20599.1, 22150.7, 21294.7, 21990.2
18780, 16853.8, 18298.4, 15569.7
11877.9, 12038.4, 12306, 11663.9
11629, 11542, 11049, 10779
8262, 7692, 7219, 6920
6545, 6641, 6664, 6764
5508, 5286, 4862, 4485
3431, 3382, 3509, 3816
3793, 3687, 3729, 3231
2138, 2004, 1842, 1729
2077, 2146, 2161, 2276
1783, 1502, 1398, 1276
833, 876, 943, 1026
1297, 1245, 1167, 1137
579, 519, 442, 371
541, 584, 624, 729
650, 546, 513, 440
171, 172, 170, 202
348, 376, 393, 376
238, 198, 184, 126
92, 145, 135, 172
220, 204, 199, 212
82, 54, 49, 59
91, 96, 122, 117
119, 109, 91, 80
56, 46, 50, 69
95, 91, 76, 100
45, 41, 57, 62
62, 77, 99, 91
71, 54, 53, 54
33, 55, 46, 59
99, 116, 112, 88
40, 45, 32, 30
44, 58, 68, 92
116, 98, 84, 77
42, 29, 29, 33
74, 86, 107, 100
117, 124, 68, 75
43, 18, 34, 34
97, 127, 110, 106
93, 95, 63, 60
33, 44, 38, 46
97, 115, 141, 134
110, 76, 57, 55
30, 45, 43, 68
113, 115, 97, 124
83, 79, 57, 57
34, 44, 60, 80
104, 109, 114, 134
72, 54, 54, 37
44, 48, 62, 75
125, 102, 104, 103
59, 44, 33, 21
36, 55, 86, 95
103, 104, 99, 87
51, 40, 32, 30
60, 56, 67, 83
94, 90, 85, 83
51, 42, 28, 25
51, 60, 78, 64
79, 77, 68, 79
36, 27, 21, 36
41, 61, 54, 73
83, 68, 71, 76
33, 24, 24, 27
52, 74, 73, 60
67, 81, 63, 51
30, 24, 23, 25
49, 55, 57, 80
65, 62, 50, 38
24, 21, 22, 27
42, 38, 62, 72
51, 54, 46, 47
19, 23, 27, 21
39, 68, 47, 60
53, 50, 36, 37
27, 20, 32, 26
47, 55, 47, 53
56, 46, 31, 37
24, 16, 34, 31
29, 46, 46, 56
39, 32, 37, 24
23, 16, 22, 34
46, 38, 38, 48
26, 30, 33, 35
19, 18, 19, 18
51, 45, 33, 41
35, 37, 26, 27
16, 26, 27, 20
26, 31, 34, 32
20, 16, 24, 18
15, 14, 13, 18
27, 34, 22, 26
27, 25, 22, 17
17, 13, 17, 23
26, 24, 34, 26
23, 25, 18, 16
11, 17, 16, 15
30, 29, 28, 27
21, 17, 15, 16
16, 14, 20, 21
22, 23, 18, 23
22, 10, 14, 9
12, 13, 14, 19
19, 22, 17, 14
13, 12, 9, 16
10, 17, 12, 7
13, 15, 17, 15
17, 9, 11, 11
6, 5, 11, 11
10, 14, 15, 14
12, 7, 15, 15
10, 8, 13, 10
15, 10, 15, 7
9, 13, 2, 3
10, 11, 3, 6
9, 11, 2, 9
6, 5, 7, 0.000000
9, 7, 7, 7
9, 5, 12, 9
5, 6, 6, 1
4, 4, 5, 4
12, 3, 9, 8
2, 5, 9, 4
4, 5, 4, 6
9, 8, 2, 7
6, 3, 6, 7
6, 5, 4, 6
3, 5, 1, 7
4, 0.000000, 2, 2
5, 3, 2, 6
5, 1, 2, 7
3, 0.000000, 3, 5
4, 3, 3, 3
2, 0.000000, 2, 3
4, 1, 0.000000, 2
3, 7, 2, 1
1, 2, 0.000000, 3
1, 1, 1, 0.000000
2, 3, 3, 1
1, 3, 2, 2
0.000000, 3, 1, 3
0.000000, 1, 1, 1
1, 1, 0.000000, 2
2, 0.000000, 0.000000, 1
0.000000, 4, 1, 1
2, 0.000000, 0.000000, 1
0.000000, 2, 0.000000, 0.000000
0.000000, 1, 1, 1
1, 0.000000, 0.000000, 0.000000
0.000000, 2, 2, 0.000000
1, 1, 1, 0.000000
0.000000, 0.000000, 1, 0.000000
2, 1, 0.000000, 0.000000
2
*END

*EOF