File: 20220926_XRR/20210729-1-5 2/20210729-4_pre_2θ_ω.asc
*TYPE		=  Raw
*CLASS		=  ASCII CLASS
*SAMPLE		=  2V022501 Fe20m VSM
*COMMENT	=
*FNAME		=  20210729-4_pre_2θ_ω.asc
*DATE		=  29-Jul-21 11:21

*GROUP_COUNT	=  1
*GONIO		=  SmartLab(In-plane), 0.000000
*ATTACHMENT	=  χφZクレードル
*ASC		=  0, 0, 0.000000, 0.000000
*I_MONOCHRO	=  Ge(220)x2, 0.000000
*FILTER		=  None
*C_MONOCHRO	=  None, 0.000000
*SLIT_NAME	=  0, 入射スリット
*SLIT_NAME	=  1, 受光スリット1
*SLIT_NAME	=  2, 受光スリット2
*COUNTER	=  SC-70, 0
*POS_FORMAT	=  0
*SCAN_AXIS	=  2Theta/Omega
*MEAS_MODE	=  Continuous Scanning
*TARGET		=  29
*XRAY_CHAR	=  K-ALPHA1
*WAVE_LENGTH1	=  1.54059
*WAVE_LENGTH2	=  1.54441
*THICKNESS	=  0, 0.000000
*MU		=  0, 0.000000
*SCAN_MODE	=  2Theta/Omega
*SPEED_DIM	=  sec./step
*XUNIT		=  deg.
*YUNIT		=  counts
*SCALE_MODE	=  1
*REP_COUNT	=  0
*SE_COUNT	=  0
*STD_MATERIAL	=  Unknown, Unknown, 0.000000, 0.000000, 0.000000, 0.000000, 0.000000, 0.000000
*LATT_CONS	=  0, Unknown, Unknown, 0.000000, 0.000000, 0.000000, 0.000000, 0.000000, 0.000000
*SEC_COUNT	=  1
*TSPEC_SIZE	=  0
*EXTRA_SIZE	=  0
*MEMO		=

*BEGIN
*GROUP		=  0
*START		=  0.000000
*STOP		=  6
*STEP		=  0.004
*OFFSET		=  0.000000
*SPEED		=  0.08
*SLIT_SPEC	=  0, 0.100mm, 0.1, 0.000000
*SLIT_SPEC	=  1, 0.200mm, 0.2, 0.000000
*SLIT_SPEC	=  2, 0.200mm, 0.2, 0.000000
*KV		=  45
*MA		=  200
*LOW		=  0.000000
*HIGH		=  0.000000
*CTEMPER	=  0, 0.000000
*CTEMPER	=  1, 0.000000
*CTEMPER	=  2, 0.000000
*PAREX		=  0, 0.000000
*PAREX		=  1, 0.000000
*PAREX		=  2, 0.000000
*PAREX		=  3, 0.000000
*PAREX		=  4, 0.000000
*PAREX		=  5, 0.000000
*PAREX		=  6, 0.000000
*PAREX		=  7, 0.000000
*PAREX		=  8, 0.000000
*PAREX		=  9, 0.000000
*PAREX		=  10, 0.000000
*PAREX		=  11, 0.000000
*PAREX		=  12, 0.000000
*PAREX		=  13, 0.000000
*PAREX		=  14, 0.000000
*PAREX		=  15, 0.000000
*FULL_SCALE	=  38017756
*INDEX		=  0, 0, 0
*COUNT		=  1501
2534517, 2534517, 2475886.5, 2423119
430516, 316263, 204065, 166612
182877, 193204, 205242, 213428
267146, 281165, 281111, 294273
350881, 368269, 380415, 381966
435738, 463025, 463400, 480147
534025, 541570, 546171, 563239
631724, 631831, 643228, 658423
697481, 709091, 735362, 744778
795768, 803045, 812140, 827282
883087, 895714, 905880, 901278
956762, 969175, 992717, 992556
1039372.6, 1034771.3, 1061523.4, 1061951.4
1100260.4, 1110854.3, 1124016.3, 1137285.3
1175754.8, 1172491, 1186562.6, 1195176.9
1236589.1, 1237552.1, 1248146, 1255262
1278536.4, 1281211.6, 1292019.4, 1306251.5
1322356.3, 1331024, 1342794.9, 1333324.6
1350178.5, 1375593, 1356706, 1347824.3
1357294.5, 1362431, 1353709.8, 1354458.9
1341564.3, 1349804, 1328883.9, 1330328.4
1279231.9, 1274630.5, 1248413.5, 1250874.8
1157777.4, 1131774.4, 1127333.5, 1093625.9
971850, 939320, 905452, 881268
702082, 666020, 622628, 602992
461527, 447295, 417226, 402084
341945, 331138, 332529, 310378
268966, 256660, 251737, 231513
172070, 154146, 149277, 140020
85981.3, 80577.3, 74317.3, 66826.7
62974.4, 66612.7, 63188.5, 67736.3
75387.4, 78062.6, 84055.1, 79293.2
82396.5, 81486.9, 80684.3, 79560.7
61636.8, 59710.7, 57517, 55162.8
36008.3, 30497.4, 28357.2, 23006.8
11610.4, 11396.4, 10308, 8890
8333, 8672, 9415, 10236
15966, 17420, 18671, 19735
24508, 25041, 25584, 25576
25181, 24746, 23859, 22877
17581, 16728, 15825, 14394
8531, 7490, 6448, 5494
1894, 1399, 1126, 789
527, 764, 948, 1248
3161, 3551, 4010, 4362
6310, 6694, 6915, 7224
7685, 7718, 7596, 7710
6734, 6439, 6284, 5793
4167, 3773, 3567, 3105
1771, 1448, 1286, 1114
592, 470, 519, 485
785, 819, 884, 1016
1604, 1699, 1880, 1884
2327, 2270, 2364, 2332
2466, 2319, 2285, 2319
1867, 1894, 1742, 1722
1252, 1161, 1171, 1027
824, 787, 699, 712
749, 674, 718, 733
861, 835, 906, 935
974, 1042, 1072, 1057
1002, 1022, 1000, 963
880, 794, 756, 756
568, 580, 479, 479
344, 417, 342, 324
370, 355, 396, 426
460, 544, 543, 579
694, 743, 716, 724
783, 755, 781, 759
756, 705, 642, 629
512, 470, 403, 381
262, 212, 211, 177
101, 86, 87, 72
91, 110, 140, 141
242, 281, 297, 302
436, 460, 494, 470
551, 560, 600, 586
572, 563, 563, 547
467, 425, 407, 334
250, 237, 180, 182
85, 63, 59, 44
12, 20, 22, 32
72, 103, 91, 130
224, 237, 283, 292
410, 396, 421, 425
466, 520, 455, 449
475, 451, 449, 420
308, 333, 276, 237
152, 142, 124, 123
37, 40, 11, 8
19, 23, 26, 34
115, 107, 143, 155
236, 277, 269, 289
347, 370, 376, 384
433, 418, 405, 415
324, 334, 347, 317
227, 203, 205, 203
107, 98, 79, 68
38, 21, 23, 16
17, 40, 51, 62
118, 132, 157, 158
215, 261, 248, 266
320, 303, 314, 340
333, 338, 343, 305
290, 286, 278, 264
215, 156, 151, 123
82, 71, 50, 53
29, 23, 27, 28
34, 47, 82, 69
114, 124, 140, 162
188, 205, 219, 224
251, 291, 278, 239
245, 254, 257, 268
218, 206, 175, 171
117, 108, 102, 88
58, 36, 40, 29
29, 20, 24, 22
48, 49, 63, 78
110, 99, 124, 125
160, 175, 169, 178
197, 171, 210, 203
199, 188, 149, 145
145, 129, 121, 123
94, 90, 57, 55
35, 24, 35, 30
20, 28, 24, 26
44, 36, 56, 60
70, 93, 100, 93
96, 148, 118, 118
147, 131, 109, 138
119, 104, 113, 102
51, 75, 74, 73
44, 37, 34, 21
18, 17, 18, 18
16, 15, 13, 18
36, 31, 39, 48
63, 72, 67, 63
72, 76, 81, 73
89, 71, 79, 70
66, 61, 53, 52
50, 42, 40, 32
20, 19, 14, 8
16, 8, 10, 6
9, 12, 9, 4
12, 22, 26, 25
35, 31, 28, 40
40, 51, 37, 33
34, 42, 47, 35
22, 32, 27, 25
17, 13, 13, 9
10, 4, 3, 3
6, 1, 0.000000, 3
7, 4, 2, 9
14, 15, 9, 15
19, 25, 16, 14
18, 16, 26, 24
27, 20, 13, 20
14, 13, 12, 15
5, 6, 4, 4
4, 1, 0.000000, 1
1, 1, 3, 1
4, 2, 2, 4
7, 3, 5, 11
6, 11, 7, 10
8, 7, 8, 9
7, 4, 6, 4
4, 6, 3, 1
6, 1, 1, 2
2, 1, 0.000000, 0.000000
2, 0.000000, 1, 1
3, 0.000000, 0.000000, 4
4, 2, 1, 6
2, 4, 2, 2
2, 2, 5, 3
2, 2, 3, 3
2, 2, 1, 0.000000
2, 1, 1, 1
1, 2, 1, 3
0.000000, 0.000000, 2, 0.000000
2, 1, 4, 2
1, 1, 0.000000, 2
2, 1, 1, 2
1, 1, 2, 1
0.000000, 0.000000, 1, 0.000000
1, 0.000000, 1, 1
5, 2, 3, 1
2, 2, 2, 1
2, 2, 1, 1
2
*END

*EOF