File: 20220926_XRR/20210729-1-5 2/20210729-1_pre_2θ_ω.asc
*TYPE		=  Raw
*CLASS		=  ASCII CLASS
*SAMPLE		=  1V041101 S45C 25m VS600 120mA 150V -30deg phi440(4t) ellpse
*COMMENT	=
*FNAME		=  20210729-1_pre_2θ_ω.asc
*DATE		=  29-Jul-21 10:09

*GROUP_COUNT	=  1
*GONIO		=  SmartLab(In-plane), 0.000000
*ATTACHMENT	=  χφZクレードル
*ASC		=  0, 0, 0.000000, 0.000000
*I_MONOCHRO	=  Ge(220)x2, 0.000000
*FILTER		=  None
*C_MONOCHRO	=  None, 0.000000
*SLIT_NAME	=  0, 入射スリット
*SLIT_NAME	=  1, 受光スリット1
*SLIT_NAME	=  2, 受光スリット2
*COUNTER	=  SC-70, 0
*POS_FORMAT	=  0
*SCAN_AXIS	=  2Theta/Omega
*MEAS_MODE	=  Continuous Scanning
*TARGET		=  29
*XRAY_CHAR	=  K-ALPHA1
*WAVE_LENGTH1	=  1.54059
*WAVE_LENGTH2	=  1.54441
*THICKNESS	=  0, 0.000000
*MU		=  0, 0.000000
*SCAN_MODE	=  2Theta/Omega
*SPEED_DIM	=  sec./step
*XUNIT		=  deg.
*YUNIT		=  counts
*SCALE_MODE	=  1
*REP_COUNT	=  0
*SE_COUNT	=  0
*STD_MATERIAL	=  Unknown, Unknown, 0.000000, 0.000000, 0.000000, 0.000000, 0.000000, 0.000000
*LATT_CONS	=  0, Unknown, Unknown, 0.000000, 0.000000, 0.000000, 0.000000, 0.000000, 0.000000
*SEC_COUNT	=  1
*TSPEC_SIZE	=  0
*EXTRA_SIZE	=  0
*MEMO		=  600 120mA 150V -30deg phi440(4t) ellpse

*BEGIN
*GROUP		=  0
*START		=  0.000000
*STOP		=  6
*STEP		=  0.004
*OFFSET		=  0.000000
*SPEED		=  0.08
*SLIT_SPEC	=  0, 0.100mm, 0.1, 0.000000
*SLIT_SPEC	=  1, 0.200mm, 0.2, 0.000000
*SLIT_SPEC	=  2, 0.200mm, 0.2, 0.000000
*KV		=  45
*MA		=  200
*LOW		=  0.000000
*HIGH		=  0.000000
*CTEMPER	=  0, 0.000000
*CTEMPER	=  1, 0.000000
*CTEMPER	=  2, 0.000000
*PAREX		=  0, 0.000000
*PAREX		=  1, 0.000000
*PAREX		=  2, 0.000000
*PAREX		=  3, 0.000000
*PAREX		=  4, 0.000000
*PAREX		=  5, 0.000000
*PAREX		=  6, 0.000000
*PAREX		=  7, 0.000000
*PAREX		=  8, 0.000000
*PAREX		=  9, 0.000000
*PAREX		=  10, 0.000000
*PAREX		=  11, 0.000000
*PAREX		=  12, 0.000000
*PAREX		=  13, 0.000000
*PAREX		=  14, 0.000000
*PAREX		=  15, 0.000000
*FULL_SCALE	=  49413032
*INDEX		=  0, 0, 0
*COUNT		=  1501
3294202.3, 3111609.8, 3001049.3, 2853635
474070, 315942, 186355, 153557
151203, 160834, 167094, 173086
219421, 222791, 225199, 240769
275226, 292133, 292400, 295129
333652, 353021, 353342, 364738
402031, 411768, 418349, 423111
463560, 472442, 490366, 491864
527926, 538573, 542533, 539643
579022, 598712, 600478, 605775
636379, 647882, 656604, 662757
694164, 691060, 701761, 710429
727015, 744939, 746223, 761579
778807, 790525, 780626, 790150
810535, 831669, 837448, 845687
855800, 855479, 863611, 871209
854088, 882926, 876238, 890417
898871, 894590, 893413, 893467
903472, 910320, 907217, 909839
905184, 897640, 903204, 897372
873296, 859384, 861418, 848416
827817, 829101, 806094, 789455
710643, 703794, 677845, 672120
563506, 530548, 511286, 488493
371319, 348259, 335364, 314070
225306, 223166, 210646, 198554
146602, 143498, 131085, 123113
93578.8, 87265.4, 83199, 78009.1
71374.6, 68217.9, 60352.7, 60352.7
45104, 39807.1, 37934.5, 35098.8
28196.7, 28464.2, 27715.2, 29694.8
25628.5, 26163.6, 26859.1, 21669.2
12413, 13697.1, 12359.5, 12573.5
9383, 9676, 10023, 10200
11218, 11150, 10847, 10168
6694, 5746, 5147, 4251
2266, 2272, 2203, 2279
3610, 3867, 4081, 4057
3559, 3277, 2991, 2589
1014, 687, 564, 445
589, 671, 858, 938
1371, 1387, 1424, 1299
887, 682, 629, 514
310, 305, 332, 411
608, 644, 663, 723
495, 493, 422, 401
269, 277, 314, 345
690, 781, 865, 895
939, 923, 830, 795
396, 296, 221, 173
257, 369, 433, 508
1174, 1192, 1256, 1333
1316, 1158, 1137, 1051
496, 367, 306, 212
286, 361, 473, 612
1225, 1313, 1404, 1499
1461, 1499, 1385, 1250
670, 551, 465, 336
234, 291, 389, 447
1093, 1140, 1311, 1410
1633, 1656, 1509, 1432
905, 795, 704, 601
242, 230, 265, 286
759, 937, 1000, 1119
1477, 1501, 1487, 1488
1085, 1011, 867, 790
294, 250, 234, 202
436, 549, 654, 744
1159, 1291, 1342, 1320
1137, 1158, 999, 999
468, 432, 303, 290
235, 276, 353, 426
817, 891, 960, 1044
1186, 1154, 1088, 1099
648, 604, 478, 405
188, 198, 175, 189
440, 538, 577, 684
918, 938, 1032, 965
828, 754, 670, 606
265, 250, 194, 154
203, 259, 297, 349
634, 746, 713, 741
771, 773, 738, 632
392, 307, 304, 230
109, 115, 131, 175
328, 396, 435, 470
614, 661, 645, 649
502, 455, 372, 366
140, 130, 90, 86
157, 172, 189, 248
403, 445, 484, 480
437, 421, 443, 364
217, 198, 170, 118
63, 77, 84, 87
190, 244, 264, 288
384, 356, 369, 341
283, 254, 230, 144
61, 57, 53, 51
85, 115, 136, 169
258, 245, 266, 253
234, 228, 202, 178
72, 89, 72, 46
34, 48, 35, 48
109, 127, 133, 147
172, 197, 182, 176
114, 90, 89, 74
28, 16, 10, 23
39, 39, 55, 52
117, 100, 118, 117
81, 97, 87, 78
30, 27, 30, 11
16, 13, 16, 23
50, 56, 59, 61
66, 67, 59, 71
34, 42, 36, 22
8, 5, 8, 3
12, 23, 25, 35
39, 43, 53, 38
42, 31, 34, 27
6, 12, 7, 13
8, 9, 9, 10
24, 22, 26, 27
24, 27, 12, 27
9, 10, 19, 10
11, 5, 10, 6
11, 12, 14, 7
11, 10, 13, 6
21, 8, 10, 16
9, 10, 7, 8
7, 14, 7, 8
10, 5, 8, 10
6, 6, 4, 6
10, 6, 7, 10
8, 7, 6, 9
9, 6, 7, 8
6, 3, 1, 6
3, 2, 3, 3
5, 9, 10, 9
7, 10, 10, 15
5, 9, 6, 9
3, 3, 2, 6
4, 4, 6, 19
13, 15, 7, 9
6, 8, 9, 3
3, 4, 2, 1
4, 2, 4, 1
9, 13, 11, 15
18, 12, 12, 9
2, 5, 2, 0.000000
0.000000, 1, 2, 2
2, 3, 7, 6
12, 5, 8, 6
8, 4, 4, 5
2, 0.000000, 0.000000, 3
0.000000, 2, 2, 3
7, 4, 7, 10
9, 8, 8, 6
4, 5, 6, 2
3, 0.000000, 1, 3
0.000000, 0.000000, 5, 4
8, 5, 5, 8
4, 6, 6, 0.000000
3, 2, 3, 0.000000
1, 3, 3, 1
5, 2, 3, 1
3, 5, 4, 5
4, 3, 7, 0.000000
1, 2, 2, 1
4, 3, 5, 4
5, 3, 5, 3
1, 2, 3, 4
4, 0.000000, 0.000000, 1
2, 1, 3, 2
2, 4, 0.000000, 4
2, 4, 1, 3
2, 2, 1, 2
1, 1, 0.000000, 1
2, 0.000000, 1, 3
2, 2, 5, 3
2, 8, 2, 1
2, 0.000000, 1, 1
0.000000, 2, 3, 0.000000
2, 0.000000, 0.000000, 1
3, 3, 2, 2
2, 0.000000, 0.000000, 0.000000
1, 0.000000, 1, 0.000000
0.000000, 0.000000, 2, 1
2, 0.000000, 1, 2
3
*END

*EOF