File: 20220926_XRR/20210729-1-5 2/20210729-5_2θ_ω.asc
*TYPE		=  Raw
*CLASS		=  ASCII CLASS
*SAMPLE		=  2V032701 Fe1h VSM
*COMMENT	=
*FNAME		=  20210729-5_2θ_ω.asc
*DATE		=  29-Jul-21 12:07

*GROUP_COUNT	=  1
*GONIO		=  SmartLab(In-plane), 0.000000
*ATTACHMENT	=  χφZクレードル
*ASC		=  0, 0, 0.000000, 0.000000
*I_MONOCHRO	=  Ge(220)x2, 0.000000
*FILTER		=  None
*C_MONOCHRO	=  None, 0.000000
*SLIT_NAME	=  0, 入射スリット
*SLIT_NAME	=  1, 受光スリット1
*SLIT_NAME	=  2, 受光スリット2
*COUNTER	=  SC-70, 0
*POS_FORMAT	=  0
*SCAN_AXIS	=  2Theta/Omega
*MEAS_MODE	=  Continuous Scanning
*TARGET		=  29
*XRAY_CHAR	=  K-ALPHA1
*WAVE_LENGTH1	=  1.54059
*WAVE_LENGTH2	=  1.54441
*THICKNESS	=  0, 0.000000
*MU		=  0, 0.000000
*SCAN_MODE	=  2Theta/Omega
*SPEED_DIM	=  sec./step
*XUNIT		=  deg.
*YUNIT		=  counts
*SCALE_MODE	=  1
*REP_COUNT	=  0
*SE_COUNT	=  0
*STD_MATERIAL	=  Unknown, Unknown, 0.000000, 0.000000, 0.000000, 0.000000, 0.000000, 0.000000
*LATT_CONS	=  0, Unknown, Unknown, 0.000000, 0.000000, 0.000000, 0.000000, 0.000000, 0.000000
*SEC_COUNT	=  1
*TSPEC_SIZE	=  0
*EXTRA_SIZE	=  0
*MEMO		=

*BEGIN
*GROUP		=  0
*START		=  0.000000
*STOP		=  6
*STEP		=  0.004
*OFFSET		=  0.000000
*SPEED		=  0.6
*SLIT_SPEC	=  0, 0.100mm, 0.1, 0.000000
*SLIT_SPEC	=  1, 0.200mm, 0.2, 0.000000
*SLIT_SPEC	=  2, 0.200mm, 0.2, 0.000000
*KV		=  45
*MA		=  200
*LOW		=  0.000000
*HIGH		=  0.000000
*CTEMPER	=  0, 0.000000
*CTEMPER	=  1, 0.000000
*CTEMPER	=  2, 0.000000
*PAREX		=  0, 0.000000
*PAREX		=  1, 0.000000
*PAREX		=  2, 0.000000
*PAREX		=  3, 0.000000
*PAREX		=  4, 0.000000
*PAREX		=  5, 0.000000
*PAREX		=  6, 0.000000
*PAREX		=  7, 0.000000
*PAREX		=  8, 0.000000
*PAREX		=  9, 0.000000
*PAREX		=  10, 0.000000
*PAREX		=  11, 0.000000
*PAREX		=  12, 0.000000
*PAREX		=  13, 0.000000
*PAREX		=  14, 0.000000
*PAREX		=  15, 0.000000
*FULL_SCALE	=  37483380
*INDEX		=  0, 0, 0
*COUNT		=  1501
18636156, 18741690, 18439324, 18105130
5127665, 3823552.8, 3287501.5, 3271587.5
4125081.5, 4249043.5, 4526282.5, 4818597.5
5912477, 6247509, 6266773.5, 6608506
7763529, 7748452.5, 8144628, 8291204.5
9010686, 9347393, 9591966, 9511558
10476451, 10721024, 11022553, 11014177
11798152, 11981582, 12087117, 12341741
12986678, 12979977, 13124879, 13080487
13480850, 13902990, 13927280, 14157615
14482596, 14345233, 14458306, 14483433
15173599, 15109943, 15190351, 15241443
15402259, 15506956, 15437437, 15382157
15836125, 15597415, 15806810, 15624217
15819373, 15751529, 15820211, 15547998
15629243, 15538784, 15475966, 15453351
15682010, 15264058, 15396396, 15106593
14977606, 14987657, 14764860, 14654300
14472545, 13996799, 14075532, 13897965
13428920, 13326735, 13330086, 13180159
12584640, 12478267, 12011735, 12116432
11357585, 11272152, 10973973, 10687521
9880931, 9577727, 9457116, 9020737
7859013, 7592662.5, 7344739, 7049073.5
5643614, 5433381.5, 5135203, 4837024.5
3613320, 3408950.5, 3127523.8, 3058004.5
2306833.5, 2151511, 2054293.8, 1952582.3
1494372.3, 1456812.4, 1386079.8, 1318022.5
1044669.5, 995927, 954568, 917811
736164, 708396, 671906, 650344
525518, 524341, 493897, 482180
409200, 388655, 374583, 352325
284696, 284268, 272497, 275654
234188, 229373, 211021, 208185
167575, 156767, 161262, 156714
143124, 137345, 126912, 127661
97270.6, 93418.3, 92615.8, 90957.1
88710, 83680.6, 81807.9, 81722
61598, 57417, 54892, 52201
50531, 51049, 50937, 50854
42652, 39600, 36977, 34035
26611, 26518, 27280, 27770
28938, 28271, 26886, 25691
16124, 15123, 13902, 13788
15680, 16554, 16966, 17441
13235, 12129, 10809, 9544
6467, 6735, 7228, 7623
9567, 9375, 9109, 8469
4524, 3724, 3325, 3104
4076, 4498, 4964, 5205
4780, 4185, 3829, 3261
1384, 1237, 1343, 1441
2778, 2991, 3187, 3030
1733, 1374, 1143, 938
661, 813, 1042, 1239
1699, 1651, 1504, 1391
525, 445, 351, 351
723, 849, 847, 946
830, 729, 669, 549
370, 373, 424, 478
693, 679, 679, 666
428, 388, 374, 393
559, 579, 596, 633
549, 454, 442, 351
332, 373, 398, 429
705, 714, 706, 702
409, 308, 307, 225
403, 450, 546, 685
794, 775, 721, 709
282, 268, 232, 253
565, 666, 725, 827
820, 793, 655, 566
251, 222, 253, 292
738, 789, 871, 925
742, 677, 570, 475
230, 283, 295, 393
808, 851, 923, 899
648, 536, 483, 414
295, 310, 372, 449
789, 888, 862, 831
605, 477, 402, 347
280, 341, 390, 490
839, 829, 824, 854
465, 400, 330, 262
331, 383, 486, 572
772, 803, 761, 742
398, 350, 283, 243
355, 420, 455, 535
752, 741, 693, 677
328, 307, 224, 233
424, 450, 505, 532
665, 672, 652, 585
321, 282, 236, 207
382, 430, 512, 516
660, 610, 575, 516
260, 228, 208, 186
372, 389, 515, 560
576, 526, 541, 486
227, 226, 212, 247
375, 440, 482, 542
561, 541, 476, 417
228, 201, 195, 209
407, 459, 488, 471
465, 503, 403, 353
217, 193, 198, 215
363, 409, 427, 435
409, 382, 352, 328
175, 182, 187, 187
321, 384, 412, 410
413, 366, 316, 299
191, 168, 146, 204
335, 385, 361, 385
347, 309, 294, 297
164, 176, 164, 216
319, 381, 347, 355
327, 302, 275, 240
144, 160, 156, 169
286, 321, 342, 307
282, 252, 252, 196
145, 172, 190, 170
304, 273, 319, 323
270, 236, 160, 211
139, 123, 156, 175
240, 272, 243, 259
209, 208, 204, 172
108, 123, 169, 158
252, 223, 257, 241
166, 182, 167, 161
134, 111, 118, 143
211, 220, 229, 230
150, 134, 157, 115
93, 113, 123, 110
185, 193, 180, 183
143, 147, 145, 120
112, 104, 113, 124
164, 164, 156, 186
125, 121, 123, 85
80, 88, 110, 110
135, 151, 132, 157
99, 89, 91, 79
79, 64, 93, 88
120, 136, 131, 110
79, 94, 80, 68
71, 70, 84, 90
120, 99, 102, 93
64, 58, 50, 56
71, 63, 70, 72
91, 100, 67, 91
65, 58, 49, 49
52, 41, 57, 64
80, 72, 87, 71
49, 39, 39, 46
48, 37, 50, 61
72, 77, 62, 63
44, 39, 32, 37
41, 44, 41, 59
61, 63, 55, 57
30, 27, 33, 15
31, 41, 32, 37
45, 40, 33, 34
40, 24, 18, 26
30, 30, 40, 26
33, 32, 39, 18
25, 15, 16, 20
20, 18, 32, 23
32, 33, 27, 28
17, 18, 12, 16
19, 28, 28, 15
25, 27, 18, 11
20, 10, 14, 12
15, 17, 15, 16
11, 16, 22, 12
10, 18, 15, 9
13, 16, 12, 16
7, 21, 15, 17
4, 16, 10, 14
10, 16, 12, 14
13, 12, 15, 9
11, 12, 14, 2
12, 8, 7, 13
9, 8, 9, 13
10, 6, 10, 9
10, 9, 6, 6
9, 10, 5, 10
11, 6, 8, 2
9, 9, 5, 9
8, 11, 8, 4
4, 7, 9, 7
7
*END

*EOF