File: 20220926_XRR/20210729-1-5 2/20210729-4_2θ_ω.asc
*TYPE		=  Raw
*CLASS		=  ASCII CLASS
*SAMPLE		=  2V022501 Fe20m VSM
*COMMENT	=
*FNAME		=  20210729-4_2θ_ω.asc
*DATE		=  29-Jul-21 11:36

*GROUP_COUNT	=  1
*GONIO		=  SmartLab(In-plane), 0.000000
*ATTACHMENT	=  χφZクレードル
*ASC		=  0, 0, 0.000000, 0.000000
*I_MONOCHRO	=  Ge(220)x2, 0.000000
*FILTER		=  None
*C_MONOCHRO	=  None, 0.000000
*SLIT_NAME	=  0, 入射スリット
*SLIT_NAME	=  1, 受光スリット1
*SLIT_NAME	=  2, 受光スリット2
*COUNTER	=  SC-70, 0
*POS_FORMAT	=  0
*SCAN_AXIS	=  2Theta/Omega
*MEAS_MODE	=  Continuous Scanning
*TARGET		=  29
*XRAY_CHAR	=  K-ALPHA1
*WAVE_LENGTH1	=  1.54059
*WAVE_LENGTH2	=  1.54441
*THICKNESS	=  0, 0.000000
*MU		=  0, 0.000000
*SCAN_MODE	=  2Theta/Omega
*SPEED_DIM	=  sec./step
*XUNIT		=  deg.
*YUNIT		=  counts
*SCALE_MODE	=  1
*REP_COUNT	=  0
*SE_COUNT	=  0
*STD_MATERIAL	=  Unknown, Unknown, 0.000000, 0.000000, 0.000000, 0.000000, 0.000000, 0.000000
*LATT_CONS	=  0, Unknown, Unknown, 0.000000, 0.000000, 0.000000, 0.000000, 0.000000, 0.000000
*SEC_COUNT	=  1
*TSPEC_SIZE	=  0
*EXTRA_SIZE	=  0
*MEMO		=

*BEGIN
*GROUP		=  0
*START		=  0.000000
*STOP		=  6
*STEP		=  0.004
*OFFSET		=  0.000000
*SPEED		=  0.6
*SLIT_SPEC	=  0, 0.100mm, 0.1, 0.000000
*SLIT_SPEC	=  1, 0.200mm, 0.2, 0.000000
*SLIT_SPEC	=  2, 0.200mm, 0.2, 0.000000
*KV		=  45
*MA		=  200
*LOW		=  0.000000
*HIGH		=  0.000000
*CTEMPER	=  0, 0.000000
*CTEMPER	=  1, 0.000000
*CTEMPER	=  2, 0.000000
*PAREX		=  0, 0.000000
*PAREX		=  1, 0.000000
*PAREX		=  2, 0.000000
*PAREX		=  3, 0.000000
*PAREX		=  4, 0.000000
*PAREX		=  5, 0.000000
*PAREX		=  6, 0.000000
*PAREX		=  7, 0.000000
*PAREX		=  8, 0.000000
*PAREX		=  9, 0.000000
*PAREX		=  10, 0.000000
*PAREX		=  11, 0.000000
*PAREX		=  12, 0.000000
*PAREX		=  13, 0.000000
*PAREX		=  14, 0.000000
*PAREX		=  15, 0.000000
*FULL_SCALE	=  39305956
*INDEX		=  0, 0, 0
*COUNT		=  1501
19377414, 19652978, 19085936, 17999594
3443291.5, 2094047.4, 1466336.1, 1266604.9
1379284.8, 1449214.8, 1512082.3, 1586025
1975161, 2065101.6, 2158359.5, 2239311.3
2651721.8, 2728072.3, 2811966.8, 2885642
3323360, 3403830.3, 3484889, 3569693.3
3984243.8, 4049840, 4148020, 4245879.5
4651387.5, 4707406.5, 4808743.5, 4866046.5
5284289, 5371928.5, 5434528.5, 5555020
5927356, 5984766, 6098408.5, 6150896.5
6539872, 6617506.5, 6685831.5, 6789790
7150622.5, 7221194.5, 7313114.5, 7338529
7729912.5, 7804015.5, 7891174, 7926379.5
8295665.5, 8346762, 8352915, 8460619
8709628, 8836754, 8892291, 9018454
9232899, 9273883, 9331132, 9360078
9635625, 9679712, 9675004, 9776662
9895120, 9994478, 9946645, 10007051
10123048, 10136157, 10145306, 10216788
10152475, 10166494, 10110421, 10131983
9983991, 9977196, 9915345, 9857293
9554245, 9481747, 9400367, 9304487
8707862, 8556445, 8354788, 8239112
7214399.5, 7030345, 6740619.5, 6531739
5231052, 4988143, 4713024.5, 4465621
3440159.5, 3264077.3, 3122879.8, 2993025
2533691.5, 2516944.5, 2422830.8, 2367400.3
2025776, 1943647.1, 1856328.3, 1759004.1
1271099.3, 1171099.9, 1084530.1, 995874
649809, 603099, 561099, 530173
463988, 467092, 479879, 497803
559012, 581270, 597535, 606417
613800, 620970, 606310, 592399
488868, 472121, 428087, 404545
255001, 236435, 205831, 182235
95772.5, 80898.4, 75054, 68258
61657, 65305, 70803, 77108
119100, 129415, 138717, 146001
181684, 186679, 189879, 192655
187607, 183924, 178972, 173354
135495, 126057, 116757, 108061
63439, 55651, 48017, 41021
13934, 11027, 7954, 5994
4306, 5637, 7170, 9300
23217, 26551, 30268, 33196
47957, 49822, 51896, 54231
58826, 58141, 57927, 57156
50203, 48458, 46057, 44031
31093, 28423, 25919, 23824
13052, 11670, 9757, 8554
4283, 3847, 3729, 3661
5371, 5974, 6805, 7460
11861, 12637, 13149, 14021
16696, 17291, 17552, 17849
17583, 17291, 16904, 16801
14395, 13665, 13191, 12353
9396, 9025, 8243, 7844
6038, 5822, 5548, 5380
5314, 5245, 5290, 5389
6298, 6431, 6760, 6913
7675, 7602, 7783, 7769
7696, 7530, 7352, 7256
6364, 5997, 5827, 5558
4262, 4027, 3819, 3606
2825, 2678, 2632, 2442
2603, 2758, 2813, 2935
3789, 3813, 4078, 4180
5037, 5235, 5284, 5333
5809, 5792, 5650, 5776
5288, 5017, 4961, 4652
3726, 3493, 3319, 2969
1975, 1760, 1551, 1410
730, 695, 639, 619
700, 798, 914, 1053
1731, 1989, 2043, 2294
3247, 3240, 3520, 3625
4297, 4249, 4271, 4366
4270, 4309, 4187, 4111
3369, 3215, 2985, 2830
1963, 1790, 1438, 1377
628, 549, 406, 320
91, 120, 130, 164
609, 666, 816, 925
1615, 1817, 2010, 2168
2892, 2963, 3114, 3153
3439, 3567, 3445, 3571
3221, 3193, 3043, 3056
2333, 2133, 2053, 1847
1088, 954, 892, 733
263, 181, 152, 112
121, 179, 186, 237
730, 847, 898, 1037
1591, 1791, 1943, 2126
2612, 2722, 2652, 2862
2934, 3056, 2881, 2932
2507, 2608, 2399, 2290
1697, 1600, 1478, 1353
786, 653, 571, 519
162, 154, 136, 123
242, 266, 338, 411
791, 900, 1030, 1160
1662, 1723, 1924, 1895
2305, 2237, 2353, 2384
2354, 2388, 2380, 2301
1991, 1895, 1838, 1802
1300, 1136, 1063, 974
514, 483, 384, 360
167, 171, 178, 186
314, 357, 410, 428
785, 841, 1023, 1105
1501, 1543, 1566, 1686
1940, 1889, 1903, 1886
1896, 1872, 1755, 1707
1496, 1401, 1352, 1271
878, 839, 728, 701
356, 325, 266, 274
161, 187, 196, 214
317, 378, 386, 498
694, 799, 851, 911
1227, 1195, 1246, 1286
1397, 1368, 1408, 1384
1295, 1306, 1266, 1201
1002, 936, 771, 853
589, 513, 488, 407
231, 230, 173, 174
147, 148, 175, 190
297, 306, 352, 397
581, 594, 644, 672
854, 829, 893, 945
893, 888, 882, 886
805, 799, 754, 720
551, 613, 491, 469
295, 279, 256, 240
121, 119, 113, 106
111, 103, 122, 151
222, 227, 238, 286
405, 396, 424, 427
533, 494, 553, 525
521, 515, 534, 522
454, 417, 417, 371
286, 300, 250, 212
140, 126, 123, 92
51, 60, 48, 54
76, 92, 83, 89
148, 146, 167, 166
221, 215, 241, 251
265, 289, 278, 255
284, 266, 258, 267
194, 209, 191, 174
108, 119, 104, 83
57, 50, 30, 39
18, 20, 25, 25
32, 36, 46, 68
76, 90, 102, 104
115, 126, 143, 118
143, 141, 116, 149
112, 128, 112, 112
74, 83, 68, 63
34, 41, 32, 26
15, 8, 19, 4
12, 10, 15, 10
16, 28, 25, 24
41, 40, 45, 65
67, 57, 59, 53
60, 45, 55, 51
65, 52, 49, 32
30, 32, 26, 27
20, 6, 11, 4
5, 5, 4, 4
7, 4, 6, 5
7, 8, 21, 16
18, 17, 18, 22
23, 28, 25, 24
23, 25, 23, 19
14, 12, 18, 14
13, 14, 12, 13
15, 4, 9, 9
3, 7, 8, 4
5, 9, 10, 5
11, 5, 15, 7
7, 6, 14, 7
7, 5, 6, 14
7, 5, 2, 6
7, 5, 6, 7
6, 13, 12, 12
9, 15, 11, 17
8, 13, 11, 14
14, 11, 9, 16
12
*END

*EOF